#	RpP		RpS		RsP
# two-photon energy [eV] R in	10e-22	cm^2/W
4.96	2.06309		14.50213	34.86521
4.9476	3.04363		13.43158	36.23112
4.9352	3.05945		13.6497		33.88661
4.9228	1.32459		13.80555	23.77991
4.9104	2.83621		10.6538		32.49276
4.898	0.47086		13.90674	28.98529
4.8856	1.80158		11.81918	51.80955
4.8732	4.02371		11.13775	23.89334
4.8608	2.0943		13.70673	33.76038
4.8484	1.14953		13.4915		27.81156
4.836	2.70772		12.56372	22.75495
4.8236	2.4891		9.90466		19.80839
4.8112	4.01223		12.85666	24.78723
4.7988	3.44878		14.97162	16.4753
4.7864	6.50239		14.01262	16.41418
4.774	2.79108		16.61792	14.16738
4.7616	4.67019		10.75219	11.75182
4.7492	4.47336		11.49497	11.32404
4.7368	5.59313		15.1963		10.30626
4.7244	7.8751		17.19767	8.58167
4.712	11.9149		13.59634	9.35631
4.6996	10.6273		16.35812	6.97688
4.6872	12.7587		17.77343	7.91207
4.6376	24.38612	16.02207	5.53551
4.6252	28.34221	14.61997	5.22911
4.6128	34.93416	22.36908	2.82139
4.6004	35.28209	18.34956	3.56375
4.588	41.8134		16.13806	1.85424
4.5756	52.4093		17.53987	2.02499
4.5632	50.85562	21.31178	2.19563
4.5508	62.77846	19.43781	2.74887
4.5384	62.87902	26.24766	2.84467
4.526	65.03791	18.08144	2.16921
4.5136	68.75746	19.40741	1.94742
4.5012	75.13453	22.8998		2.15651
4.4888	77.39696	27.51407	2.38184
4.4764	79.98396	26.38182	2.50057
4.464	91.0511		25.42015	2.15378
4.4516	86.57001	23.9087		2.3802
4.4392	84.85492	25.60144	2.19437
4.4268	94.85401	26.30936	2.59516
4.4144	101.57331	29.57725	2.33534
4.402	101.23044	26.15528	2.74106
4.3896	107.5135	29.94617	2.09507
4.3772	109.0134	27.64224	2.07246
4.3648	120.65049	33.65486	2.1098
4.3524	126.63323	30.74957	2.31684
4.34	121.24281	38.19934	3.39909
4.3276	140.86197	31.89307	3.12137
4.3152	146.30319	32.55257	3.3002
4.3028	151.73496	30.88979	2.73951
4.2904	155.88783	29.54123	3.46267
4.278	154.00357	28.93046	2.8277
4.2656	151.44421	29.68182	3.42819
4.2532	139.36043	26.64965	3.8298
4.2408	142.80001	23.29827	2.53983
4.2284	139.48036	21.61281	3.51717
4.216	148.02714	23.85151	3.63021
4.216	146.40687	15.35517	0.81817
4.2036	132.44255	18.40896	-0.03479
4.1912	125.03099	16.99648	2.29352
4.1788	110.69001	15.28862	1.36589
4.1664	105.60687	15.58435	1.68246
4.154	95.4923		15.09886	1.61809
4.1416	93.78793	13.249		1.28518
4.1292	78.61974	13.99222	1.74146
4.1168	84.46727	10.25555	2.50497
4.1044	73.44988	10.02749	0.28042
4.092	68.83103	10.90565	1.13552
4.0796	66.41074	11.22642	1.36362
4.0672	70.02803	9.25757		1.33046
4.0548	62.89545	11.12171	1.02568
4.0424	61.92778	11.32813	1.48911
4.03	46.96656	10.86387	2.22872
4.0176	52.34057	9.31612		0.77263
4.0052	52.28391	8.1517		0.81986
3.9928	47.29797	8.86143		1.5145
3.9804	50.20082	9.34761		2.50301
3.968	36.19956	7.0455		1.96664
3.9556	36.9692		8.67056		2.28
3.9432	33.57367	6.53359		1.22571
3.9308	33.72704	8.24888		0.84346
3.9184	35.36824	8.24457		2.07269
3.906	28.34829	8.65685		1.16187
3.8936	27.38486	9.45916		0.73788
3.8812	20.05857	11.37994	1.52445
3.8688	20.19808	8.44796		1.54748
3.8564	25.40208	7.25611		1.45852
3.844	17.94876	6.01521		0.71925
3.8316	18.07289	7.14171		1.8555
3.8192	13.5642		7.72391		2.20168
3.8068	23.85854	7.76151		1.70371
3.7944	14.32785	8.49728		--
3.782	18.30172	12.69029	--
3.7696	7.7895		8.37564		--
3.8068	17.65591	4.96966		2.41627
3.7944	16.39775	8.15618		2.96698
3.782	11.16845	6.12025		2.11014
3.7696	12.14049	6.965		1.73631
3.7572	15.47641	6.46099		1.28451
3.7448	14.7005		5.67082		2.68431
3.7324	10.05362	5.42023		3.05514
3.72	11.91289	4.60293		2.46202
3.7076	11.25008	7.86123		1.88874
3.6952	11.48163	7.21882		3.1645
3.6828	12.50666	6.02487		3.02239
3.6704	11.41035	8.97478		2.46382
3.658	13.59026	11.03731	2.74715
3.6456	13.4101		10.31098	2.2461
3.6332	11.47436	11.1399		2.33523
3.6208	13.71309	13.80744	3.99491
3.6084	11.11047	15.13526	3.5111
3.596	11.84394	16.53981	3.29481
3.5836	13.24538	20.85718	2.90224
3.5712	14.57607	23.77026	3.67421
3.5588	16.08371	28.46034	2.62507
3.472	29.25524	23.59323	1.76885
3.4596	31.34537	25.49927	2.04194
3.4472	37.09701	26.08876	1.87143
3.4348	45.14946	--		1.10102
3.4224	50.60442	21.46568	0.45543
3.41	54.10529	23.47069	1.11745
3.3976	53.66354	21.90032	0.49208
3.3852	55.39286	15.82208	0.59486
3.3728	53.09069	12.25447	0.27837
3.3604	54.31459	10.35582	0.29933
3.348	52.95997	7.00958		0.25793
3.3356	47.00086	4.29175		-0.2969
3.3232	40.78294	3.70932		-0.1056
3.3108	36.95836	1.67121		-0.05892
3.2984	30.32308	1.18572		-0.13806
3.286	26.06002	1.12092		-0.01814
3.2736	23.45607	0.15774		-0.11515
3.2612	20.72499	0.05653		-0.01938
3.2488	18.7198		-0.00474	-0.13233
3.2364	14.68529	-0.03814	-0.20256
3.224	13.34315	-0.09337	-0.00218
3.2116	11.09414	0.04187		-0.04176
3.1992	10.43788	-0.01567	-0.13729
3.1868	10.1325		-0.09039	-0.07237
3.1744	8.42059		0.21196		-0.0732
3.162	8.80828		0.06924		-0.15178
3.1496	6.2845		-0.06095	-0.07728
3.1372	7.07148		0.04198		-0.17141
3.1248	5.64398		0.21399		-0.01403
3.1124	6.31643		0.23503		-0.12609
3.1	5.65877		0.10735		-0.1127
3.0876	4.93106		0.09365		-0.18385
3.0752	4.52724		-0.00759	-0.24234
3.0628	3.94853		0.08254		-0.11259
3.0504	3.14944		0.13331		-0.25036
3.038	4.20635		0.18756		-0.30182
3.0256	3.40152		-0.01464	-0.20693
3.0132	3.08886		0.07447		-0.25696
3.0008	2.32793		0.12025		-0.08514
2.9884	2.46241		0.23765		0.00807
2.976	2.73604		-0.00258	-0.43291
2.976	2.4983		0.39135		-0.17838
2.9512	2.51837		0.39382		-0.17726
2.9264	1.7643		-0.08061	-0.09135
2.9016	1.6106		-0.22523	-0.35686
2.8768	1.50078		-0.02612	-0.3152
2.852	1.19555		-0.0206		-0.341
2.8272	0.76892		0.22553		-0.26655
2.8024	0.67979		0.45183		-0.41764
2.7776	0.77528		0.39056		-0.09947
2.7528	0.80276		-0.48455	-0.51278
2.728	0.33517		-0.62198	-0.45288
2.7032	0.08259		-0.41406	-0.40641
2.6784	0.66821		-0.52485	-0.59579
2.6536	0.17334		0.31348		-0.63291
2.6288	0.15974		-0.65886	-0.91841
2.604	0.00936		-1.29671	-1.10842
2.5792	0.07871		-0.32963	-0.92766
2.5544	0.40388		0.59302		-0.51845
2.5296	-0.07758	-0.50921	-0.80424
2.5048	0.78055		-1.97799	-0.82735
2.48	-1.19233	-6.20554	-1.14676
2.4552	-0.88715	-3.37693	-2.7815
2.4304	-1.45713	-0.64732	-1.63049
2.4056	-1.85656	-0.64582	-2.94357
2.3808	-0.08868	-0.70074	-2.51717
2.356	-0.06708	-0.03413	-3.96246
